Wavelength(nm)	Transmittance_Experimental(%)	Transmittance_Fit(%)	Refractive_index	Extintion_coefficient
200	87.4284	91.0954	1.55196	0
201	87.7778	91.1166	1.55072	0
202	88.0833	91.1379	1.5495	0
203	88.3445	91.1599	1.5483	0
204	88.6347	91.1831	1.54713	0
205	88.9019	91.2077	1.54598	0
206	89.0974	91.234	1.54485	0
207	89.3368	91.2619	1.54374	0
208	89.5293	91.2912	1.54266	0
209	89.6233	91.3218	1.54159	0
210	89.7871	91.3532	1.54054	0
211	89.9014	91.385	1.53951	0
212	90.0156	91.4168	1.5385	0
213	90.1125	91.4481	1.53751	0
214	90.2017	91.4785	1.53653	0
215	90.2305	91.5077	1.53558	0
216	90.3023	91.5353	1.53463	0
217	90.3508	91.5611	1.53371	0
218	90.3561	91.585	1.5328	0
219	90.4009	91.607	1.53191	0
220	90.4139	91.627	1.53103	0
221	90.381	91.6452	1.53017	0
222	90.4711	91.6618	1.52932	0
223	90.4854	91.677	1.52848	0
224	90.4817	91.6911	1.52766	0
225	90.5406	91.7044	1.52686	0
226	90.5586	91.7171	1.52606	0
227	90.5246	91.7295	1.52528	0
228	90.5768	91.742	1.52451	0
229	90.6169	91.7547	1.52376	0
230	90.6068	91.7679	1.52301	0
231	90.7105	91.7818	1.52228	0
232	90.7286	91.7964	1.52156	0
233	90.7557	91.8118	1.52085	0
234	90.8308	91.8281	1.52015	0
235	90.9176	91.8452	1.51946	0
236	90.9641	91.8631	1.51879	0
237	91.0631	91.8817	1.51812	0
238	91.1547	91.9009	1.51746	0
239	91.1746	91.9205	1.51682	0
240	91.2869	91.9404	1.51618	0
241	91.3654	91.9604	1.51555	0
242	91.4115	91.9803	1.51493	0
243	91.4935	92	1.51432	0
244	91.5725	92.0193	1.51372	0
245	91.5896	92.0381	1.51313	0
246	91.6835	92.0563	1.51255	0
247	91.7786	92.0737	1.51198	0
248	91.7758	92.0902	1.51141	0
249	91.8311	92.1058	1.51085	0
250	91.9016	92.1205	1.5103	0
251	91.8791	92.1342	1.50976	0
252	91.9839	92.1469	1.50922	0
253	91.9842	92.1586	1.5087	0
254	91.9937	92.1695	1.50818	0
255	92.0161	92.1796	1.50766	0
256	92.0775	92.1888	1.50716	0
257	92.0553	92.1974	1.50666	0
258	92.0865	92.2055	1.50617	0
259	92.1288	92.213	1.50568	0
260	92.0914	92.2202	1.5052	0
261	92.1585	92.2271	1.50473	0
262	92.1766	92.2338	1.50426	0
263	92.1599	92.2405	1.5038	0
264	92.2055	92.2471	1.50335	0
265	92.2195	92.2539	1.5029	0
266	92.2003	92.2609	1.50246	0
267	92.2584	92.2681	1.50202	0
268	92.2837	92.2756	1.50159	0
269	92.2507	92.2835	1.50117	0
270	92.3192	92.2918	1.50075	0
271	92.3227	92.3004	1.50033	0
272	92.2932	92.3095	1.49992	0
273	92.3581	92.319	1.49952	0
274	92.3726	92.3288	1.49912	0
275	92.3278	92.3391	1.49873	0
276	92.3922	92.3497	1.49834	0
277	92.4223	92.3606	1.49795	0
278	92.3971	92.3718	1.49758	0
279	92.4479	92.3832	1.4972	0
280	92.4564	92.3948	1.49683	0
281	92.4648	92.4066	1.49646	0
282	92.4731	92.4184	1.4961	0
283	92.4813	92.4302	1.49575	0
284	92.4893	92.442	1.49539	0
285	92.4973	92.4537	1.49505	0
286	92.5052	92.4652	1.4947	0
287	92.513	92.4766	1.49436	0
288	92.5206	92.4877	1.49402	0
289	92.5282	92.4986	1.49369	0
290	92.5357	92.5091	1.49336	0
291	92.5431	92.5193	1.49304	0
292	92.5504	92.5291	1.49272	0
293	92.5577	92.5385	1.4924	0
294	92.5648	92.5475	1.49209	0
295	92.5718	92.556	1.49178	0
296	92.5788	92.5642	1.49147	0
297	92.5857	92.5718	1.49117	0
298	92.5925	92.5791	1.49087	0
299	92.5992	92.5859	1.49057	0
300	92.6059	92.5923	1.49028	0
301	92.6124	92.5983	1.48999	0
302	92.6189	92.6039	1.48971	0
303	92.6254	92.6091	1.48942	0
304	92.6317	92.614	1.48914	0
305	92.638	92.6186	1.48887	0
306	92.6442	92.6229	1.48859	0
307	92.6503	92.627	1.48832	0
308	92.6564	92.6308	1.48805	0
309	92.6624	92.6344	1.48779	0
310	92.6683	92.6379	1.48753	0
311	92.6741	92.6412	1.48727	0
312	92.6799	92.6444	1.48701	0
313	92.6857	92.6476	1.48676	0
314	92.6913	92.6507	1.48651	0
315	92.6969	92.6538	1.48626	0
316	92.7025	92.6569	1.48601	0
317	92.708	92.66	1.48577	0
318	92.7134	92.6633	1.48553	0
319	92.7188	92.6665	1.48529	0
320	92.7241	92.6699	1.48505	0
321	92.7293	92.6735	1.48482	0
322	92.7345	92.6771	1.48459	0
323	92.7397	92.6809	1.48436	0
324	92.7448	92.6848	1.48413	0
325	92.7498	92.689	1.48391	0
326	92.7548	92.6932	1.48369	0
327	92.7597	92.6977	1.48347	0
328	92.7646	92.7023	1.48325	0
329	92.7694	92.7071	1.48304	0
330	92.7742	92.7121	1.48282	0
331	92.7789	92.7173	1.48261	0
332	92.7836	92.7226	1.4824	0
333	92.7883	92.7281	1.4822	0
334	92.7928	92.7337	1.48199	0
335	92.7974	92.7394	1.48179	0
336	92.8019	92.7453	1.48159	0
337	92.8063	92.7513	1.48139	0
338	92.8107	92.7574	1.4812	0
339	92.8151	92.7636	1.481	0
340	92.8194	92.7699	1.48081	0
341	92.8237	92.7762	1.48062	0
342	92.828	92.7826	1.48043	0
343	92.8321	92.789	1.48024	0
344	92.8363	92.7954	1.48005	0
345	92.8404	92.8019	1.47987	0
346	92.8445	92.8083	1.47969	0
347	92.8485	92.8147	1.47951	0
348	92.8525	92.821	1.47933	0
349	92.8565	92.8273	1.47915	0
350	92.8604	92.8336	1.47898	0
351	92.8643	92.8397	1.4788	0
352	92.8681	92.8458	1.47863	0
353	92.8719	92.8518	1.47846	0
354	92.8757	92.8576	1.47829	0
355	92.8795	92.8634	1.47812	0
356	92.8832	92.869	1.47796	0
357	92.8868	92.8744	1.47779	0
358	92.8905	92.8797	1.47763	0
359	92.8941	92.8849	1.47747	0
360	92.8977	92.8899	1.47731	0
361	92.9012	92.8948	1.47715	0
362	92.9047	92.8994	1.47699	0
363	92.9082	92.9039	1.47684	0
364	92.9116	92.9083	1.47668	0
365	92.915	92.9125	1.47653	0
366	92.9184	92.9165	1.47638	0
367	92.9218	92.9203	1.47623	0
368	92.9251	92.924	1.47608	0
369	92.9284	92.9275	1.47593	0
370	92.9317	92.9308	1.47578	0
371	92.9349	92.9339	1.47564	0
372	92.9381	92.937	1.47549	0
373	92.9413	92.9398	1.47535	0
374	92.9444	92.9425	1.47521	0
375	92.9476	92.9451	1.47507	0
376	92.9507	92.9475	1.47493	0
377	92.9537	92.9498	1.47479	0
378	92.9568	92.952	1.47466	0
379	92.9598	92.954	1.47452	0
380	92.9628	92.9559	1.47439	0
381	92.9658	92.9578	1.47425	0
382	92.9687	92.9595	1.47412	0
383	92.9716	92.9611	1.47399	0
384	92.9745	92.9627	1.47386	0
385	92.9774	92.9641	1.47373	0
386	92.9802	92.9656	1.4736	0
387	92.9831	92.9669	1.47348	0
388	92.9858	92.9682	1.47335	0
389	92.9886	92.9694	1.47323	0
390	92.9914	92.9707	1.4731	0
391	92.9941	92.9718	1.47298	0
392	92.9968	92.973	1.47286	0
393	92.9995	92.9741	1.47274	0
394	93.0022	92.9752	1.47262	0
395	93.0048	92.9764	1.4725	0
396	93.0074	92.9775	1.47238	0
397	93.01	92.9786	1.47227	0
398	93.0126	92.9797	1.47215	0
399	93.0152	92.9809	1.47203	0
400	93.0177	92.9821	1.47192	0
401	93.0202	92.9833	1.47181	0
402	93.0227	92.9845	1.4717	0
403	93.0252	92.9858	1.47158	0
404	93.0277	92.9871	1.47147	0
405	93.0301	92.9885	1.47136	0
406	93.0325	92.9899	1.47126	0
407	93.0349	92.9913	1.47115	0
408	93.0373	92.9928	1.47104	0
409	93.0397	92.9944	1.47093	0
410	93.042	92.996	1.47083	0
411	93.0443	92.9977	1.47073	0
412	93.0467	92.9994	1.47062	0
413	93.049	93.0012	1.47052	0
414	93.0512	93.0031	1.47042	0
415	93.0535	93.005	1.47032	0
416	93.0557	93.007	1.47021	0
417	93.058	93.009	1.47012	0
418	93.0602	93.0111	1.47002	0
419	93.0623	93.0133	1.46992	0
420	93.0645	93.0155	1.46982	0
421	93.0667	93.0178	1.46972	0
422	93.0688	93.0202	1.46963	0
423	93.0709	93.0226	1.46953	0
424	93.0731	93.0251	1.46944	0
425	93.0752	93.0276	1.46934	0
426	93.0772	93.0301	1.46925	0
427	93.0793	93.0328	1.46916	0
428	93.0814	93.0354	1.46907	0
429	93.0834	93.0381	1.46897	0
430	93.0854	93.0409	1.46888	0
431	93.0874	93.0437	1.46879	0
432	93.0894	93.0465	1.46871	0
433	93.0914	93.0494	1.46862	0
434	93.0934	93.0523	1.46853	0
435	93.0953	93.0553	1.46844	0
436	93.0972	93.0582	1.46836	0
437	93.0992	93.0612	1.46827	0
438	93.1011	93.0642	1.46818	0
439	93.103	93.0673	1.4681	0
440	93.1048	93.0703	1.46802	0
441	93.1067	93.0734	1.46793	0
442	93.1086	93.0764	1.46785	0
443	93.1104	93.0795	1.46777	0
444	93.1122	93.0826	1.46768	0
445	93.1141	93.0857	1.4676	0
446	93.1159	93.0888	1.46752	0
447	93.1176	93.0918	1.46744	0
448	93.1194	93.0949	1.46736	0
449	93.1212	93.098	1.46728	0
450	93.123	93.101	1.46721	0
451	93.1247	93.104	1.46713	0
452	93.1264	93.107	1.46705	0
453	93.1282	93.11	1.46697	0
454	93.1299	93.113	1.4669	0
455	93.1316	93.116	1.46682	0
456	93.1332	93.1189	1.46675	0
457	93.1349	93.1218	1.46667	0
458	93.1366	93.1246	1.4666	0
459	93.1382	93.1275	1.46653	0
460	93.1399	93.1302	1.46645	0
461	93.1415	93.133	1.46638	0
462	93.1431	93.1357	1.46631	0
463	93.1447	93.1384	1.46624	0
464	93.1463	93.141	1.46616	0
465	93.1479	93.1436	1.46609	0
466	93.1495	93.1462	1.46602	0
467	93.1511	93.1487	1.46595	0
468	93.1526	93.1511	1.46588	0
469	93.1542	93.1535	1.46582	0
470	93.1557	93.1559	1.46575	0
471	93.1572	93.1582	1.46568	0
472	93.1588	93.1605	1.46561	0
473	93.1603	93.1627	1.46555	0
474	93.1618	93.1648	1.46548	0
475	93.1633	93.1669	1.46541	0
476	93.1647	93.169	1.46535	0
477	93.1662	93.171	1.46528	0
478	93.1677	93.1729	1.46522	0
479	93.1691	93.1748	1.46515	0
480	93.1706	93.1767	1.46509	0
481	93.172	93.1785	1.46503	0
482	93.1734	93.1802	1.46496	0
483	93.1749	93.1819	1.4649	0
484	93.1763	93.1835	1.46484	0
485	93.1777	93.1851	1.46478	0
486	93.1791	93.1866	1.46471	0
487	93.1804	93.1881	1.46465	0
488	93.1818	93.1895	1.46459	0
489	93.1832	93.1909	1.46453	0
490	93.1845	93.1922	1.46447	0
491	93.1859	93.1935	1.46441	0
492	93.1872	93.1947	1.46435	0
493	93.1886	93.1959	1.46429	0
494	93.1899	93.197	1.46424	0
495	93.1912	93.1981	1.46418	0
496	93.1925	93.1992	1.46412	0
497	93.1938	93.2002	1.46406	0
498	93.1951	93.2011	1.46401	0
499	93.1964	93.2021	1.46395	0
500	93.1977	93.2029	1.46389	0
501	93.1989	93.2038	1.46384	0
502	93.2002	93.2046	1.46378	0
503	93.2015	93.2053	1.46373	0
504	93.2027	93.2061	1.46367	0
505	93.204	93.2068	1.46362	0
506	93.2052	93.2074	1.46356	0
507	93.2064	93.2081	1.46351	0
508	93.2076	93.2086	1.46346	0
509	93.2088	93.2092	1.4634	0
510	93.2101	93.2097	1.46335	0
511	93.2113	93.2103	1.4633	0
512	93.2125	93.2107	1.46324	0
513	93.2136	93.2112	1.46319	0
514	93.2148	93.2116	1.46314	0
515	93.216	93.212	1.46309	0
516	93.2172	93.2124	1.46304	0
517	93.2183	93.2128	1.46299	0
518	93.2195	93.2131	1.46294	0
519	93.2206	93.2135	1.46289	0
520	93.2218	93.2138	1.46284	0
521	93.2229	93.2141	1.46279	0
522	93.224	93.2144	1.46274	0
523	93.2251	93.2146	1.46269	0
524	93.2263	93.2149	1.46264	0
525	93.2274	93.2151	1.46259	0
526	93.2285	93.2154	1.46255	0
527	93.2296	93.2156	1.4625	0
528	93.2307	93.2158	1.46245	0
529	93.2318	93.216	1.4624	0
530	93.2328	93.2163	1.46236	0
531	93.2339	93.2165	1.46231	0
532	93.235	93.2167	1.46226	0
533	93.236	93.2169	1.46222	0
534	93.2371	93.2171	1.46217	0
535	93.2382	93.2173	1.46213	0
536	93.2392	93.2175	1.46208	0
537	93.2402	93.2177	1.46204	0
538	93.2413	93.2179	1.46199	0
539	93.2423	93.2181	1.46195	0
540	93.2433	93.2183	1.4619	0
541	93.2443	93.2185	1.46186	0
542	93.2454	93.2187	1.46181	0
543	93.2464	93.2189	1.46177	0
544	93.2474	93.2191	1.46173	0
545	93.2484	93.2194	1.46168	0
546	93.2494	93.2196	1.46164	0
547	93.2503	93.2199	1.4616	0
548	93.2513	93.2201	1.46156	0
549	93.2523	93.2204	1.46151	0
550	93.2533	93.2207	1.46147	0
551	93.2542	93.221	1.46143	0
552	93.2552	93.2213	1.46139	0
553	93.2562	93.2216	1.46135	0
554	93.2571	93.222	1.46131	0
555	93.2581	93.2223	1.46127	0
556	93.259	93.2226	1.46123	0
557	93.26	93.223	1.46119	0
558	93.2609	93.2234	1.46115	0
559	93.2618	93.2238	1.46111	0
560	93.2627	93.2242	1.46107	0
561	93.2637	93.2246	1.46103	0
562	93.2646	93.2251	1.46099	0
563	93.2655	93.2255	1.46095	0
564	93.2664	93.226	1.46091	0
565	93.2673	93.2265	1.46087	0
566	93.2682	93.227	1.46083	0
567	93.2691	93.2275	1.4608	0
568	93.27	93.228	1.46076	0
569	93.2709	93.2286	1.46072	0
570	93.2717	93.2292	1.46068	0
571	93.2726	93.2297	1.46065	0
572	93.2735	93.2303	1.46061	0
573	93.2744	93.231	1.46057	0
574	93.2752	93.2316	1.46054	0
575	93.2761	93.2322	1.4605	0
576	93.2769	93.2329	1.46046	0
577	93.2778	93.2336	1.46043	0
578	93.2786	93.2343	1.46039	0
579	93.2795	93.235	1.46036	0
580	93.2803	93.2357	1.46032	0
581	93.2812	93.2365	1.46029	0
582	93.282	93.2372	1.46025	0
583	93.2828	93.238	1.46022	0
584	93.2836	93.2388	1.46018	0
585	93.2845	93.2396	1.46015	0
586	93.2853	93.2404	1.46011	0
587	93.2861	93.2413	1.46008	0
588	93.2869	93.2421	1.46004	0
589	93.2877	93.243	1.46001	0
590	93.2885	93.2438	1.45998	0
591	93.2893	93.2447	1.45994	0
592	93.2901	93.2456	1.45991	0
593	93.2909	93.2466	1.45988	0
594	93.2917	93.2475	1.45984	0
595	93.2925	93.2484	1.45981	0
596	93.2933	93.2494	1.45978	0
597	93.294	93.2504	1.45975	0
598	93.2948	93.2513	1.45971	0
599	93.2956	93.2523	1.45968	0
600	93.2963	93.2533	1.45965	0
601	93.2971	93.2544	1.45962	0
602	93.2979	93.2554	1.45959	0
603	93.2986	93.2564	1.45955	0
604	93.2994	93.2575	1.45952	0
605	93.3001	93.2585	1.45949	0
606	93.3009	93.2596	1.45946	0
607	93.3016	93.2607	1.45943	0
608	93.3024	93.2617	1.4594	0
609	93.3031	93.2628	1.45937	0
610	93.3038	93.2639	1.45934	0
611	93.3046	93.265	1.45931	0
612	93.3053	93.2662	1.45928	0
613	93.306	93.2673	1.45925	0
614	93.3067	93.2684	1.45922	0
615	93.3074	93.2695	1.45919	0
616	93.3082	93.2707	1.45916	0
617	93.3089	93.2718	1.45913	0
618	93.3096	93.273	1.4591	0
619	93.3103	93.2741	1.45907	0
620	93.311	93.2753	1.45904	0
621	93.3117	93.2765	1.45901	0
622	93.3124	93.2776	1.45899	0
623	93.3131	93.2788	1.45896	0
624	93.3138	93.28	1.45893	0
625	93.3145	93.2812	1.4589	0
626	93.3152	93.2823	1.45887	0
627	93.3158	93.2835	1.45885	0
628	93.3165	93.2847	1.45882	0
629	93.3172	93.2859	1.45879	0
630	93.3179	93.2871	1.45876	0
631	93.3185	93.2883	1.45874	0
632	93.3192	93.2895	1.45871	0
633	93.3199	93.2906	1.45868	0
634	93.3205	93.2918	1.45865	0
635	93.3212	93.293	1.45863	0
636	93.3219	93.2942	1.4586	0
637	93.3225	93.2954	1.45857	0
638	93.3232	93.2966	1.45855	0
639	93.3238	93.2978	1.45852	0
640	93.3245	93.2989	1.4585	0
641	93.3251	93.3001	1.45847	0
642	93.3258	93.3013	1.45844	0
643	93.3264	93.3025	1.45842	0
644	93.3271	93.3036	1.45839	0
645	93.3277	93.3048	1.45837	0
646	93.3283	93.306	1.45834	0
647	93.329	93.3071	1.45832	0
648	93.3296	93.3083	1.45829	0
649	93.3302	93.3094	1.45827	0
650	93.3308	93.3106	1.45824	0
651	93.3315	93.3117	1.45822	0
652	93.3321	93.3128	1.45819	0
653	93.3327	93.3139	1.45817	0
654	93.3333	93.3151	1.45814	0
655	93.3339	93.3162	1.45812	0
656	93.3345	93.3173	1.45809	0
657	93.3351	93.3184	1.45807	0
658	93.3357	93.3195	1.45804	0
659	93.3363	93.3206	1.45802	0
660	93.3369	93.3217	1.458	0
661	93.3375	93.3227	1.45797	0
662	93.3381	93.3238	1.45795	0
663	93.3387	93.3249	1.45793	0
664	93.3393	93.3259	1.4579	0
665	93.3399	93.327	1.45788	0
666	93.3405	93.328	1.45786	0
667	93.3411	93.329	1.45783	0
668	93.3417	93.33	1.45781	0
669	93.3423	93.3311	1.45779	0
670	93.3428	93.3321	1.45777	0
671	93.3434	93.3331	1.45774	0
672	93.344	93.334	1.45772	0
673	93.3446	93.335	1.4577	0
674	93.3451	93.336	1.45768	0
675	93.3457	93.3369	1.45765	0
676	93.3463	93.3379	1.45763	0
677	93.3468	93.3388	1.45761	0
678	93.3474	93.3397	1.45759	0
679	93.348	93.3407	1.45757	0
680	93.3485	93.3416	1.45754	0
681	93.3491	93.3425	1.45752	0
682	93.3496	93.3434	1.4575	0
683	93.3502	93.3442	1.45748	0
684	93.3507	93.3451	1.45746	0
685	93.3513	93.346	1.45744	0
686	93.3518	93.3468	1.45742	0
687	93.3524	93.3477	1.45739	0
688	93.3529	93.3485	1.45737	0
689	93.3535	93.3493	1.45735	0
690	93.354	93.3501	1.45733	0
691	93.3546	93.3509	1.45731	0
692	93.3551	93.3517	1.45729	0
693	93.3556	93.3525	1.45727	0
694	93.3562	93.3532	1.45725	0
695	93.3567	93.354	1.45723	0
696	93.3572	93.3547	1.45721	0
697	93.3577	93.3554	1.45719	0
698	93.3583	93.3562	1.45717	0
699	93.3588	93.3569	1.45715	0
700	93.3593	93.3576	1.45713	0
701	93.3598	93.3583	1.45711	0
702	93.3604	93.3589	1.45709	0
703	93.3609	93.3596	1.45707	0
704	93.3614	93.3603	1.45705	0
705	93.3619	93.3609	1.45703	0
706	93.3624	93.3615	1.45701	0
707	93.3629	93.3622	1.45699	0
708	93.3634	93.3628	1.45697	0
709	93.364	93.3634	1.45695	0
710	93.3645	93.364	1.45693	0
711	93.365	93.3646	1.45692	0
712	93.3655	93.3651	1.4569	0
713	93.366	93.3657	1.45688	0
714	93.3665	93.3662	1.45686	0
715	93.367	93.3668	1.45684	0
716	93.3675	93.3673	1.45682	0
717	93.368	93.3678	1.4568	0
718	93.3684	93.3683	1.45679	0
719	93.3689	93.3688	1.45677	0
720	93.3694	93.3693	1.45675	0
721	93.3699	93.3698	1.45673	0
722	93.3704	93.3703	1.45671	0
723	93.3709	93.3707	1.45669	0
724	93.3714	93.3712	1.45668	0
725	93.3719	93.3716	1.45666	0
726	93.3723	93.3721	1.45664	0
727	93.3728	93.3725	1.45662	0
728	93.3733	93.3729	1.45661	0
729	93.3738	93.3733	1.45659	0
730	93.3743	93.3737	1.45657	0
731	93.3747	93.3741	1.45655	0
732	93.3752	93.3744	1.45654	0
733	93.3757	93.3748	1.45652	0
734	93.3761	93.3751	1.4565	0
735	93.3766	93.3755	1.45648	0
736	93.3771	93.3758	1.45647	0
737	93.3776	93.3761	1.45645	0
738	93.378	93.3765	1.45643	0
739	93.3785	93.3768	1.45642	0
740	93.379	93.3771	1.4564	0
741	93.3794	93.3774	1.45638	0
742	93.3799	93.3777	1.45637	0
743	93.3803	93.3779	1.45635	0
744	93.3808	93.3782	1.45633	0
745	93.3812	93.3785	1.45632	0
746	93.3817	93.3787	1.4563	0
747	93.3821	93.3789	1.45628	0
748	93.3826	93.3792	1.45627	0
749	93.383	93.3794	1.45625	0
750	93.3835	93.3796	1.45624	0
751	93.3839	93.3798	1.45622	0
752	93.3844	93.38	1.4562	0
753	93.3849	93.3802	1.45619	0
754	93.3853	93.3804	1.45617	0
755	93.3857	93.3806	1.45616	0
756	93.3862	93.3808	1.45614	0
757	93.3866	93.381	1.45613	0
758	93.3871	93.3811	1.45611	0
759	93.3875	93.3813	1.45609	0
760	93.3879	93.3814	1.45608	0
761	93.3884	93.3816	1.45606	0
762	93.3888	93.3817	1.45605	0
763	93.3892	93.3818	1.45603	0
764	93.3897	93.382	1.45602	0
765	93.3901	93.3821	1.456	0
766	93.3905	93.3822	1.45599	0
767	93.391	93.3823	1.45597	0
768	93.3914	93.3824	1.45596	0
769	93.3918	93.3825	1.45594	0
770	93.3923	93.3826	1.45593	0
771	93.3927	93.3826	1.45591	0
772	93.3931	93.3827	1.4559	0
773	93.3935	93.3828	1.45588	0
774	93.3939	93.3829	1.45587	0
775	93.3944	93.3829	1.45585	0
776	93.3948	93.383	1.45584	0
777	93.3952	93.383	1.45583	0
778	93.3956	93.3831	1.45581	0
779	93.396	93.3831	1.4558	0
780	93.3965	93.3832	1.45578	0
781	93.3969	93.3832	1.45577	0
782	93.3973	93.3832	1.45575	0
783	93.3977	93.3832	1.45574	0
784	93.3981	93.3833	1.45573	0
785	93.3985	93.3833	1.45571	0
786	93.3989	93.3833	1.4557	0
787	93.3993	93.3833	1.45568	0
788	93.3997	93.3833	1.45567	0
789	93.4001	93.3833	1.45566	0
790	93.4005	93.3833	1.45564	0
791	93.4009	93.3833	1.45563	0
792	93.4014	93.3833	1.45562	0
793	93.4018	93.3833	1.4556	0
794	93.4022	93.3833	1.45559	0
795	93.4026	93.3832	1.45557	0
796	93.403	93.3832	1.45556	0
797	93.4034	93.3832	1.45555	0
798	93.4038	93.3832	1.45553	0
799	93.4042	93.3831	1.45552	0
800	93.4046	93.3831	1.45551	0
801	93.4049	93.3831	1.45549	0
802	93.4053	93.383	1.45548	0
803	93.4057	93.383	1.45547	0
804	93.4061	93.383	1.45546	0
805	93.4065	93.3829	1.45544	0
806	93.4069	93.3829	1.45543	0
807	93.4073	93.3828	1.45542	0
808	93.4077	93.3828	1.4554	0
809	93.4081	93.3827	1.45539	0
810	93.4085	93.3827	1.45538	0
811	93.4089	93.3826	1.45537	0
812	93.4092	93.3825	1.45535	0
813	93.4096	93.3825	1.45534	0
814	93.41	93.3824	1.45533	0
815	93.4104	93.3824	1.45532	0
816	93.4108	93.3823	1.4553	0
817	93.4112	93.3822	1.45529	0
818	93.4115	93.3822	1.45528	0
819	93.4119	93.3821	1.45527	0
820	93.4123	93.382	1.45525	0
821	93.4127	93.382	1.45524	0
822	93.413	93.3819	1.45523	0
823	93.4134	93.3818	1.45522	0
824	93.4138	93.3818	1.45521	0
825	93.4142	93.3817	1.45519	0
826	93.4145	93.3816	1.45518	0
827	93.4149	93.3815	1.45517	0
828	93.4153	93.3815	1.45516	0
829	93.4156	93.3814	1.45515	0
830	93.416	93.3813	1.45513	0
831	93.4164	93.3812	1.45512	0
832	93.4168	93.3812	1.45511	0
833	93.4171	93.3811	1.4551	0
834	93.4175	93.381	1.45509	0
835	93.4179	93.3809	1.45508	0
836	93.4182	93.3809	1.45506	0
837	93.4186	93.3808	1.45505	0
838	93.419	93.3807	1.45504	0
839	93.4193	93.3807	1.45503	0
840	93.4197	93.3806	1.45502	0
841	93.4201	93.3805	1.45501	0
842	93.4204	93.3804	1.455	0
843	93.4208	93.3804	1.45498	0
844	93.4211	93.3803	1.45497	0
845	93.4215	93.3802	1.45496	0
846	93.4219	93.3802	1.45495	0
847	93.4222	93.3801	1.45494	0
